Load (N)	Extension (mm)
	
	
1.5135	-0.34454
1.5250	-0.34454
1.5366	-0.34454
1.5481	-0.34454
1.5597	-0.34454
1.5713	-0.34454
1.5828	-0.34454
1.5944	-0.34454
1.6060	-0.34454
1.6175	-0.34454
1.6291	-0.34454
1.6406	-0.34454
1.6522	-0.33699
3.0046	-0.28441
3.5454	-0.22319
3.8725	-0.15555
4.1997	-0.084229
4.5269	-0.010003
4.8540	0.061326
4.9568	0.098055
4.1212	0.097302
4.3302	0.10318
4.5393	0.10317
4.3178	0.10165
3.9384	0.064892
3.1536	-0.0020714
2.3689	-0.066640
1.5841	-0.13771
0.79929	-0.20977
0.028694	-0.28188
-0.50145	-0.35501
-1.0316	-0.42814
-1.5617	-0.50127
-2.0919	-0.57459
-2.6220	-0.64930
-3.1522	-0.72402
-3.6823	-0.79873
-4.2125	-0.87344
-4.7426	-0.94815
-5.2728	-1.0229
-5.8029	-1.0976
-6.3331	-1.1723
-6.8632	-1.2470
-7.3934	-1.3217
-7.9235	-1.3964
-8.4537	-1.4711
-8.9838	-1.5459
-9.5140	-1.6206
-10.044	-1.6953
-10.574	-1.7698
-11.104	-1.8443
-11.635	-1.9189
-12.165	-1.9934
-12.695	-2.0679
-13.225	-2.1424
-13.755	-2.2170
-14.285	-2.2915
-14.815	-2.3660
-15.346	-2.4405
-15.876	-2.5149
-16.406	-2.5890
-16.936	-2.6631
-17.466	-2.7371
-17.996	-2.8110
-18.526	-2.8848
-19.057	-2.9588
-19.587	-3.0327
-20.117	-3.1066
-20.647	-3.1805
-21.174	-3.2544
-21.678	-3.3283
-22.182	-3.4022
-22.686	-3.4761
-23.190	-3.5501
-23.694	-3.6240
-24.197	-3.6979
-24.701	-3.7718
-25.205	-3.8457
-25.709	-3.9196
-26.213	-3.9935
-26.717	-4.0675
-27.220	-4.1417
-27.724	-4.2158
-28.228	-4.2900
-28.732	-4.3641
-29.236	-4.4383
-29.740	-4.5124
-30.243	-4.5866
-30.747	-4.6607
-31.251	-4.7348
-31.755	-4.8090
-32.259	-4.8831
-32.763	-4.9573
-33.266	-5.0314
-33.770	-5.1056
-34.274	-5.1797
-34.778	-5.2538
-35.282	-5.3280
-35.786	-5.4021
-36.290	-5.4762
-36.793	-5.5503
-37.297	-5.6244
-37.801	-5.6985
-38.305	-5.7725
-38.809	-5.8466
-39.313	-5.9207
-39.816	-5.9948
-40.320	-6.0689
-40.824	-6.1430
-41.328	-6.2171
-41.832	-6.2912
-42.336	-6.3653
-42.839	-6.4393
-43.343	-6.5134
-43.847	-6.5875
-44.351	-6.6616
-44.855	-6.7356
-45.359	-6.8097
-45.862	-6.8838
-46.366	-6.9578
-46.870	-7.0319
-47.374	-7.1059
-47.878	-7.1800
-48.382	-7.2541
-48.885	-7.3281
-49.389	-7.4022
-49.893	-7.4763
-50.397	-7.5503
-50.901	-7.6244
-51.405	-7.6985
-51.909	-7.7725
-52.412	-7.8466
-52.916	-7.9206
-53.420	-7.9947
-53.924	-8.0688
-54.448	-8.1428
-54.976	-8.2169
-55.504	-8.2910
-56.032	-8.3650
-56.559	-8.4391
-57.087	-8.5132
-57.615	-8.5872
-58.143	-8.6613
-58.671	-8.7353
-59.177	-8.8094
-59.626	-8.8835
-60.076	-8.9575
-60.526	-9.0316
-60.976	-9.1056
-61.426	-9.1796
-61.872	-9.2536
-62.316	-9.3276
-62.760	-9.4016
-63.204	-9.4755
-63.649	-9.5495
-64.093	-9.6235
-64.537	-9.6975
-64.981	-9.7715
-65.425	-9.8455
-65.870	-9.9195
-66.314	-9.9935
-66.758	-10.067
-67.202	-10.141
-67.646	-10.215
-68.091	-10.289
-68.535	-10.363
-69.025	-10.437
-69.520	-10.511
-70.015	-10.585
-70.510	-10.659
-71.005	-10.733
-71.500	-10.807
-71.995	-10.881
-72.490	-10.955
-72.985	-11.029
-73.480	-11.103
-73.975	-11.177
-74.471	-11.251
-74.966	-11.325
-75.461	-11.399
-75.956	-11.473
-76.451	-11.547
-76.946	-11.621
-77.441	-11.695
-77.936	-11.769
-78.431	-11.843
-78.926	-11.917
-79.421	-11.991
-79.916	-12.065
-80.411	-12.139
-80.907	-12.213
-81.402	-12.287
-81.897	-12.361
-82.392	-12.435
-82.887	-12.509
-83.382	-12.583
-83.877	-12.657
-84.372	-12.731
-84.867	-12.805
-85.362	-12.879
-85.857	-12.953
-86.352	-13.027
-86.911	-13.101
-87.476	-13.175
-88.042	-13.249
-88.608	-13.323
-89.173	-13.397
-89.739	-13.471
-90.305	-13.545
-90.871	-13.619
-91.436	-13.693
-92.002	-13.767
-92.568	-13.841
-93.133	-13.915
-93.699	-13.989
-94.265	-14.063
-94.831	-14.137
-95.298	-14.211
-95.162	-14.285
-95.026	-14.359
-95.490	-14.433
-96.029	-14.507
-96.568	-14.582
-97.107	-14.656
-97.646	-14.731
-98.185	-14.806
-98.724	-14.880
-99.263	-14.954
-99.802	-15.028
-100.34	-15.102
-100.88	-15.176
-101.42	-15.250
-101.96	-15.324
-102.50	-15.398
-103.04	-15.471
-103.57	-15.545
-104.11	-15.619
-104.65	-15.693
-105.19	-15.767
-105.73	-15.841
-106.27	-15.915
-106.81	-15.989
-107.35	-16.063
-107.89	-16.137
-108.43	-16.211
-108.96	-16.285
-109.50	-16.359
-110.04	-16.433
-110.58	-16.507
-111.12	-16.581
-111.66	-16.655
-112.20	-16.729
-112.74	-16.803
-113.28	-16.878
-113.82	-16.952
-114.35	-17.026
-114.89	-17.100
-115.43	-17.174
-115.97	-17.248
-116.51	-17.322
-117.05	-17.396
-117.59	-17.470
-118.13	-17.544
-118.67	-17.618
-119.21	-17.692
-119.74	-17.766
-120.28	-17.840
-120.82	-17.914
-121.36	-17.988
-121.90	-18.062
-122.44	-18.136
-122.98	-18.210
-123.52	-18.284
-124.06	-18.358
-124.59	-18.432
-125.13	-18.506
-125.67	-18.580
-126.21	-18.654
-126.75	-18.728
-127.29	-18.802
-127.83	-18.876
-128.37	-18.950
-128.91	-19.024
-129.45	-19.099
-129.98	-19.173
-130.52	-19.247
-131.06	-19.321
-131.60	-19.395
-132.14	-19.469
-132.68	-19.543
-133.22	-19.617
-133.76	-19.691
-134.30	-19.765
-134.84	-19.839
-135.37	-19.913
-135.91	-19.987
-136.51	-20.061
-137.19	-20.135
-137.88	-20.209
-138.57	-20.283
-139.25	-20.357
-139.94	-20.431
-140.62	-20.505
-141.31	-20.579
-142.00	-20.653
-142.68	-20.727
-143.37	-20.801
-144.05	-20.875
-144.74	-20.949
-145.43	-21.023
-146.57	-21.097
-147.78	-21.171
-148.99	-21.245
-150.20	-21.319
-151.41	-21.393
-152.61	-21.467
-153.82	-21.541
-155.03	-21.614
-156.24	-21.688
-157.45	-21.762
-159.34	-21.836
-164.36	-21.910
-169.37	-21.984
-174.39	-22.058
-181.57	-22.132
-189.28	-22.206
-196.99	-22.280
-203.32	-22.354
-207.80	-22.428
-212.29	-22.502
-216.78	-22.576
-221.27	-22.650
-225.75	-22.724
-231.29	-22.797
-240.14	-22.871
-249.00	-22.945
-257.85	-23.019
-269.01	-23.092
-285.51	-23.166
-302.02	-23.239
-318.52	-23.312
-335.03	-23.385
-361.31	-23.459
-390.05	-23.532
-418.78	-23.605
-447.51	-23.678
-476.25	-23.750
-504.98	-23.815
-531.94	-23.833
-524.19	-23.831
-516.43	-23.827
-508.67	-23.819
-496.57	-23.794
-449.41	-23.727
-402.25	-23.660
-355.09	-23.593
-307.93	-23.521
-262.05	-23.447
-242.46	-23.374
-222.87	-23.300
-203.27	-23.227
-183.68	-23.153
-164.08	-23.080
-144.49	-23.006
-129.96	-22.932
-127.54	-22.859
-125.12	-22.785
-122.69	-22.712
-120.27	-22.638
-117.85	-22.564
-115.43	-22.491
-113.01	-22.417
-110.58	-22.344
-108.16	-22.270
-105.74	-22.197
-103.32	-22.123
-100.89	-22.049
-100.39	-21.976
-100.06	-21.902
-99.737	-21.829
-99.408	-21.755
-99.080	-21.681
-98.752	-21.607
-98.424	-21.533
-98.095	-21.459
-97.767	-21.385
-97.439	-21.311
-97.111	-21.237
-96.782	-21.163
-96.454	-21.089
-96.126	-21.015
-95.798	-20.941
-95.469	-20.867
-95.141	-20.793
-94.813	-20.719
-94.485	-20.645
-94.156	-20.571
-93.828	-20.496
-93.500	-20.422
-93.171	-20.348
-92.843	-20.274
-92.515	-20.200
-92.187	-20.126
-91.858	-20.052
-91.530	-19.978
-91.202	-19.904
-90.874	-19.830
-90.545	-19.756
-90.217	-19.682
-89.889	-19.608
-89.561	-19.534
-89.232	-19.460
-88.904	-19.386
-88.576	-19.312
-88.248	-19.238
-87.919	-19.164
-87.591	-19.090
-87.263	-19.016
-86.935	-18.942
-86.606	-18.868
-86.278	-18.794
-85.950	-18.720
-85.622	-18.646
-85.293	-18.572
-84.965	-18.498
-84.637	-18.424
-84.309	-18.350
-83.980	-18.276
-83.652	-18.202
-83.324	-18.128
-82.996	-18.054
-82.667	-17.980
-82.339	-17.906
-82.011	-17.832
-81.683	-17.758
-81.354	-17.684
-81.026	-17.610
-80.698	-17.536
-80.370	-17.462
-80.041	-17.388
-79.713	-17.313
-79.385	-17.239
-79.057	-17.165
-78.728	-17.091
-78.400	-17.017
-78.072	-16.943
-77.744	-16.869
-77.415	-16.795
-77.087	-16.721
-76.759	-16.647
-76.431	-16.573
-76.102	-16.499
-75.774	-16.425
-75.446	-16.351
-75.118	-16.277
-74.789	-16.203
-74.279	-16.129
-70.007	-16.055
-69.685	-15.981
-69.363	-15.907
-69.041	-15.833
-68.719	-15.758
-68.397	-15.684
-68.076	-15.610
-67.754	-15.536
-67.432	-15.462
-67.110	-15.387
-66.788	-15.313
-66.466	-15.239
-66.145	-15.165
-65.823	-15.091
-65.501	-15.017
-65.179	-14.943
-64.857	-14.869
-64.535	-14.795
-64.214	-14.721
-63.892	-14.647
-63.570	-14.573
-63.248	-14.499
-62.926	-14.425
-62.604	-14.351
-62.283	-14.277
-61.961	-14.203
-61.639	-14.129
-61.317	-14.055
-60.995	-13.980
-60.673	-13.906
-60.352	-13.832
-60.030	-13.758
-59.708	-13.684
-59.386	-13.610
-59.064	-13.536
-58.742	-13.462
-58.421	-13.388
-58.099	-13.314
-57.777	-13.240
-57.455	-13.166
-57.133	-13.092
-56.811	-13.018
-56.490	-12.944
-56.168	-12.870
-55.846	-12.796
-55.524	-12.722
-55.202	-12.648
-54.816	-12.574
-54.173	-12.499
-53.530	-12.425
-52.888	-12.351
-52.245	-12.277
-51.603	-12.203
-51.188	-12.129
-50.941	-12.055
-50.693	-11.981
-50.446	-11.907
-50.199	-11.833
-49.952	-11.759
-49.705	-11.685
-49.458	-11.611
-49.210	-11.537
-48.963	-11.463
-48.654	-11.389
-48.269	-11.315
-47.883	-11.241
-47.498	-11.167
-47.113	-11.093
-46.727	-11.019
-46.342	-10.944
-45.957	-10.870
-45.571	-10.796
-45.186	-10.722
-44.801	-10.648
-44.415	-10.574
-44.030	-10.500
-43.644	-10.426
-43.259	-10.352
-42.874	-10.278
-42.488	-10.204
-42.103	-10.130
-41.718	-10.057
-41.442	-9.9826
-41.180	-9.9086
-40.919	-9.8347
-40.658	-9.7607
-40.396	-9.6867
-40.135	-9.6128
-39.874	-9.5388
-39.528	-9.4649
-39.119	-9.3909
-38.710	-9.3170
-38.301	-9.2430
-37.891	-9.1691
-37.482	-9.0951
-37.073	-9.0212
-36.664	-8.9472
-36.254	-8.8733
-35.845	-8.7993
-35.436	-8.7254
-35.027	-8.6514
-34.617	-8.5774
-34.276	-8.5034
-33.976	-8.4293
-33.676	-8.3553
-33.375	-8.2812
-33.075	-8.2072
-32.775	-8.1331
-32.474	-8.0591
-32.174	-7.9851
-31.874	-7.9110
-31.573	-7.8370
-31.273	-7.7629
-30.973	-7.6889
-30.672	-7.6149
-30.372	-7.5408
-30.034	-7.4668
-29.667	-7.3927
-29.300	-7.3187
-28.932	-7.2446
-28.565	-7.1706
-28.198	-7.0966
-27.831	-7.0225
-27.158	-6.9485
-26.414	-6.8744
-25.670	-6.8004
-25.321	-6.7264
-24.974	-6.6523
-24.626	-6.5783
-24.279	-6.5042
-23.931	-6.4302
-23.584	-6.3561
-23.236	-6.2821
-22.888	-6.2081
-22.541	-6.1340
-22.193	-6.0600
-21.846	-5.9859
-21.498	-5.9119
-21.151	-5.8380
-20.803	-5.7640
-20.455	-5.6900
-20.108	-5.6161
-19.760	-5.5421
-19.413	-5.4681
-19.065	-5.3942
-18.718	-5.3202
-18.370	-5.2462
-18.022	-5.1723
-17.675	-5.0983
-17.327	-5.0243
-16.980	-4.9504
-16.632	-4.8764
-16.285	-4.8024
-15.937	-4.7285
-15.579	-4.6545
-15.220	-4.5805
-14.861	-4.5066
-14.501	-4.4326
-14.142	-4.3586
-13.783	-4.2847
-13.424	-4.2106
-13.064	-4.1353
-12.705	-4.0601
-12.346	-3.9852
-11.986	-3.9112
-11.627	-3.8373
-11.268	-3.7633
-10.908	-3.6893
-10.549	-3.6153
-10.190	-3.5413
-9.8305	-3.4673
-9.4712	-3.3934
-9.1119	-3.3194
-8.7526	-3.2454
-8.3933	-3.1714
-8.0340	-3.0974
-7.6747	-3.0234
-7.3154	-2.9495
-6.9561	-2.8755
-6.5968	-2.8015
-6.2375	-2.7275
-5.8782	-2.6535
-5.5039	-2.5795
-5.0573	-2.5056
-4.6107	-2.4316
-4.1641	-2.3576
-3.7175	-2.2836
-3.2709	-2.2096
-2.8944	-2.1356
-2.5762	-2.0617
-2.2580	-1.9877
-1.9398	-1.9137
-1.6215	-1.8397
-1.3033	-1.7657
-0.98509	-1.6917
-0.66687	-1.6178
-0.34865	-1.5438
-0.030434	-1.4698
0.28779	-1.3957
0.60601	-1.3215
0.92423	-1.2474
1.2424	-1.1732
1.5607	-1.0990
1.8789	-1.0248
2.2970	-0.94650
2.7414	-0.87115
3.1857	-0.79781
3.6300	-0.72448
4.0743	-0.65114
4.5186	-0.57781
4.9629	-0.50447
5.3137	-0.43114
5.5627	-0.35781
5.8117	-0.28447
6.0607	-0.21068
6.3096	-0.13666
6.5586	-0.062642
6.8076	0.011377
7.0566	0.085396
7.3055	0.15942
7.5545	0.23343
7.8035	0.30745
8.0525	0.38147
8.3014	0.45549
8.5504	0.52951
8.7994	0.60353
9.0484	0.67755
9.4021	0.75157
9.7955	0.82559
10.189	0.89961
10.582	0.97363
10.976	1.0476
11.369	1.1217
11.763	1.1957
12.156	1.2697
12.550	1.3437
12.943	1.4177
13.336	1.4918
13.730	1.5658
14.123	1.6398
14.517	1.7138
14.910	1.7878
15.304	1.8619
15.697	1.9359
16.091	2.0099
16.484	2.0839
16.877	2.1579
17.271	2.2320
17.664	2.3060
18.058	2.3800
18.451	2.4540
18.845	2.5280
19.238	2.6020
19.631	2.6761
20.042	2.7501
20.459	2.8241
20.876	2.8981
21.293	2.9721
21.710	3.0462
22.127	3.1202
22.544	3.1942
22.961	3.2682
23.327	3.3422
23.684	3.4163
24.041	3.4903
24.398	3.5643
24.755	3.6383
25.112	3.7123
25.469	3.7864
25.826	3.8604
26.183	3.9344
26.540	4.0084
26.897	4.0859
27.254	4.1618
27.611	4.2357
27.968	4.3096
28.325	4.3835
28.755	4.4575
29.225	4.5314
29.695	4.6053
30.165	4.6792
30.636	4.7531
31.111	4.8270
31.586	4.9009
32.060	4.9748
32.535	5.0487
33.010	5.1226
33.484	5.1965
33.959	5.2704
34.434	5.3443
34.909	5.4182
35.383	5.4922
35.858	5.5661
36.333	5.6401
36.807	5.7141
37.282	5.7880
37.757	5.8620
38.027	5.9360
38.289	6.0100
38.550	6.0840
38.812	6.1580
39.073	6.2319
39.335	6.3059
39.596	6.3799
39.858	6.4539
40.119	6.5279
40.381	6.6019
40.642	6.6758
40.928	6.7498
41.352	6.8238
41.776	6.8978
42.201	6.9718
42.625	7.0458
43.050	7.1197
43.474	7.1937
43.899	7.2677
44.323	7.3417
44.748	7.4157
45.172	7.4897
45.597	7.5636
46.021	7.6376
46.445	7.7116
46.870	7.7856
47.395	7.8596
48.014	7.9336
48.633	8.0075
49.252	8.0815
49.865	8.1555
50.095	8.2295
50.325	8.3035
50.554	8.3775
50.784	8.4514
51.013	8.5254
51.243	8.5994
51.472	8.6734
51.826	8.7474
52.232	8.8214
52.639	8.8953
53.045	8.9693
53.451	9.0436
53.858	9.1190
54.264	9.1944
54.670	9.2684
55.077	9.3423
55.483	9.4162
55.889	9.4901
56.296	9.5640
56.702	9.6379
57.155	9.7118
57.797	9.7857
58.439	9.8596
59.081	9.9336
59.723	10.007
60.365	10.081
61.007	10.155
61.464	10.229
61.694	10.303
61.924	10.377
62.154	10.451
62.384	10.525
62.613	10.599
62.843	10.673
63.073	10.747
63.303	10.821
63.533	10.895
63.930	10.969
64.349	11.043
64.769	11.117
65.188	11.191
65.608	11.265
66.027	11.339
66.447	11.413
66.866	11.487
67.286	11.555
68.247	11.617
68.965	11.709
68.420	11.793
68.848	11.865
69.276	11.937
69.705	12.009
70.133	12.081
70.562	12.153
70.990	12.226
71.418	12.300
71.847	12.374
72.275	12.448
72.703	12.522
73.132	12.596
73.560	12.670
73.988	12.744
74.417	12.819
74.845	12.893
75.274	12.967
75.702	13.041
76.130	13.115
76.559	13.189
76.987	13.263
77.515	13.337
78.067	13.411
78.618	13.485
79.169	13.559
79.721	13.633
80.272	13.707
80.823	13.781
81.375	13.855
81.926	13.929
82.477	14.003
82.929	14.077
83.335	14.151
83.741	14.226
84.148	14.300
84.554	14.374
84.960	14.448
85.366	14.522
85.772	14.596
86.178	14.670
86.584	14.744
86.990	14.818
87.396	14.892
87.802	14.966
88.209	15.040
88.615	15.114
89.021	15.188
89.427	15.262
89.833	15.336
90.234	15.410
90.600	15.484
90.966	15.558
91.332	15.632
91.698	15.707
92.065	15.781
92.431	15.855
92.797	15.929
93.163	16.003
93.529	16.077
93.895	16.151
94.261	16.225
94.627	16.299
94.993	16.373
95.359	16.447
95.725	16.521
96.091	16.595
96.457	16.669
96.823	16.743
97.189	16.817
97.555	16.891
97.922	16.965
98.288	17.039
98.802	17.113
99.409	17.187
100.02	17.261
100.60	17.335
101.12	17.409
101.65	17.483
102.17	17.557
102.69	17.631
103.21	17.705
103.73	17.779
104.25	17.853
104.77	17.927
105.31	18.001
105.92	18.075
106.53	18.149
107.14	18.223
107.74	18.297
108.35	18.371
108.96	18.445
109.57	18.519
110.18	18.593
110.74	18.667
111.30	18.741
111.86	18.815
112.41	18.889
112.97	18.963
113.53	19.037
114.08	19.111
114.64	19.185
115.20	19.259
115.76	19.333
116.31	19.407
116.87	19.481
117.43	19.555
117.98	19.629
118.54	19.703
119.10	19.777
119.65	19.851
120.21	19.925
120.77	20.000
121.33	20.075
121.88	20.150
122.53	20.224
123.18	20.298
123.84	20.372
124.49	20.446
125.14	20.520
125.79	20.594
126.44	20.668
127.06	20.742
127.42	20.816
127.77	20.890
128.13	20.964
128.48	21.038
128.84	21.112
129.19	21.186
129.55	21.260
129.90	21.334
130.45	21.408
131.09	21.482
131.74	21.556
132.38	21.630
133.03	21.704
133.67	21.778
134.31	21.852
134.96	21.926
135.60	22.000
136.24	22.074
136.89	22.148
137.53	22.222
138.43	22.296
139.38	22.370
140.32	22.444
141.27	22.518
142.01	22.593
142.39	22.667
142.76	22.741
143.14	22.815
143.51	22.889
143.89	22.963
144.26	23.037
144.64	23.111
145.01	23.185
145.50	23.259
146.21	23.333
146.92	23.407
147.63	23.481
148.35	23.555
149.06	23.629
149.77	23.703
150.48	23.777
151.19	23.851
151.90	23.925
152.61	23.999
153.32	24.073
154.03	24.147
155.12	24.221
156.23	24.295
157.34	24.369
158.45	24.443
159.19	24.517
159.52	24.591
159.85	24.665
160.18	24.739
160.51	24.813
160.84	24.887
161.17	24.961
161.50	25.035
161.84	25.109
162.17	25.183
162.60	25.257
163.22	25.331
163.85	25.405
164.48	25.479
165.10	25.553
165.73	25.627
166.36	25.701
166.98	25.775
167.61	25.849
168.24	25.923
168.86	25.997
169.87	26.071
171.08	26.145
172.29	26.221
173.50	26.294
174.71	26.367
175.93	26.441
177.14	26.515
178.35	26.589
179.39	26.663
179.78	26.737
180.18	26.811
180.57	26.885
180.96	26.959
181.36	27.033
181.75	27.107
182.15	27.181
182.54	27.255
182.94	27.329
183.33	27.403
183.73	27.477
184.69	27.551
185.67	27.625
186.66	27.699
187.64	27.773
188.63	27.847
189.62	27.921
190.60	27.995
191.59	28.068
192.57	28.142
193.76	28.217
195.26	28.291
196.76	28.365
198.26	28.439
199.76	28.513
201.02	28.587
201.78	28.661
202.54	28.735
203.30	28.809
204.06	28.883
204.82	28.957
205.58	29.031
206.34	29.106
207.10	29.180
207.86	29.254
208.62	29.328
209.38	29.402
210.14	29.476
210.90	29.550
211.66	29.624
212.42	29.698
213.18	29.772
213.94	29.846
214.70	29.920
215.46	29.995
216.75	30.069
218.33	30.143
219.91	30.217
221.49	30.291
223.07	30.365
224.65	30.439
225.57	30.513
226.49	30.587
227.41	30.661
228.33	30.735
229.25	30.809
230.17	30.883
231.09	30.957
232.01	31.031
232.93	31.105
233.85	31.179
234.77	31.253
235.69	31.327
236.61	31.401
237.53	31.475
239.05	31.549
240.60	31.623
242.14	31.697
243.69	31.771
245.24	31.845
246.79	31.919
248.34	31.993
250.53	32.067
253.10	32.141
255.66	32.215
258.23	32.289
260.80	32.363
263.37	32.437
265.93	32.511
268.50	32.585
270.91	32.659
272.63	32.733
274.36	32.807
276.08	32.881
277.81	32.955
279.53	33.029
281.26	33.103
282.98	33.177
285.28	33.251
287.66	33.325
290.03	33.399
292.41	33.473
294.78	33.546
297.16	33.620
299.53	33.694
301.91	33.768
305.29	33.842
308.66	33.915
312.04	33.989
315.42	34.063
318.79	34.137
322.17	34.211
325.55	34.285
328.92	34.358
332.30	34.432
335.67	34.506
339.05	34.580
342.53	34.654
346.44	34.727
350.35	34.801
354.27	34.875
358.18	34.949
362.10	35.023
365.48	35.096
368.45	35.170
371.41	35.244
374.38	35.318
377.35	35.392
377.79	35.465
378.62	35.539
384.43	35.613
390.24	35.687
396.04	35.761
401.85	35.835
407.66	35.908
413.47	35.982
419.27	36.056
425.08	36.130
430.89	36.204
436.70	36.277
442.50	36.351
448.31	36.425
454.12	36.499
459.93	36.573
465.73	36.647
471.61	36.720
478.65	36.794
485.69	36.868
492.73	36.914
473.51	36.837
442.89	36.762
421.42	36.695
399.94	36.626
379.92	36.552
366.58	36.478
353.23	36.404
339.88	36.330
326.53	36.256
313.18	36.182
304.02	36.108
298.27	36.034
292.51	35.960
286.75	35.886
280.99	35.812
275.23	35.738
269.47	35.664
263.71	35.590
257.95	35.516
252.19	35.442
249.97	35.367
247.79	35.293
245.60	35.219
243.42	35.145
241.24	35.071
239.05	34.997
236.87	34.923
234.69	34.849
232.51	34.775
230.32	34.701
228.14	34.627
225.96	34.553
223.77	34.479
221.59	34.405
219.41	34.331
217.23	34.257
215.14	34.183
213.86	34.109
212.57	34.035
211.29	33.961
210.00	33.887
208.72	33.813
207.43	33.739
206.15	33.665
204.86	33.591
203.58	33.517
202.29	33.443
201.01	33.369
199.72	33.295
198.44	33.221
197.15	33.147
195.87	33.073
194.58	32.999
193.59	32.925
192.66	32.851
191.74	32.777
190.81	32.703
189.89	32.629
188.96	32.555
188.04	32.481
187.12	32.407
186.19	32.333
185.27	32.259
184.34	32.184
183.42	32.110
182.49	32.036
181.57	31.962
180.69	31.888
180.02	31.814
179.36	31.740
178.70	31.666
178.03	31.592
177.37	31.518
176.70	31.444
176.04	31.370
175.37	31.296
174.71	31.222
174.04	31.148
173.38	31.074
172.71	31.000
172.05	30.926
171.38	30.852
170.72	30.778
170.06	30.704
169.39	30.630
168.73	30.556
168.06	30.482
167.40	30.408
166.73	30.334
166.07	30.260
165.40	30.186
164.74	30.112
164.11	30.038
163.53	29.964
162.96	29.890
162.38	29.816
161.80	29.742
161.23	29.668
160.65	29.594
160.07	29.520
159.50	29.446
158.92	29.372
158.34	29.298
157.77	29.224
157.19	29.150
156.61	29.076
156.04	29.003
155.46	28.929
154.88	28.855
154.31	28.781
153.73	28.707
153.15	28.633
152.58	28.559
152.00	28.485
151.42	28.411
150.85	28.337
150.27	28.263
149.69	28.189
149.12	28.115
148.54	28.041
147.98	27.967
147.46	27.892
146.94	27.818
146.41	27.744
145.89	27.670
145.37	27.596
144.85	27.522
144.33	27.448
143.81	27.374
143.29	27.300
142.76	27.226
142.24	27.152
141.72	27.078
141.20	27.004
140.68	26.930
140.16	26.856
139.64	26.782
139.11	26.708
138.59	26.634
138.07	26.560
137.55	26.486
137.03	26.412
136.51	26.338
135.99	26.264
135.46	26.190
134.94	26.116
134.42	26.042
133.91	25.968
133.43	25.894
132.95	25.820
132.47	25.746
131.99	25.672
131.51	25.598
